# Erythema action spectrum

# Spectrum suggested by:
# A.F. McKinlay, A.F. and B.L. Diffey,
# "A reference action spectrum for ultraviolet induced erythema in human skin",
# CIE Research Note, 6(1), 17-22, 1987

# Values are parameterized as follows:

# A = 	1		for  250 <= W <= 298
# A = 	10^(0.094(298- W))	for 298 < W < 328
# A = 	10^(0.015(139-W-))	for 328 < W < 400

# Dose rates derived with this action spectrum are part of NSF UV database 3 and
# are labeled "Dose3_CIE_Erythema."

# Integration range: 286 - 400 nm
# The action spectrum describes effect per energy unit.

286	1
286.05	1
286.1	1
286.15	1
286.2	1
286.25	1
286.3	1
286.35	1
286.4	1
286.45	1
286.5	1
286.55	1
286.6	1
286.65	1
286.7	1
286.75	1
286.8	1
286.85	1
286.9	1
286.95	1
287	1
287.05	1
287.1	1
287.15	1
287.2	1
287.25	1
287.3	1
287.35	1
287.4	1
287.45	1
287.5	1
287.55	1
287.6	1
287.65	1
287.7	1
287.75	1
287.8	1
287.85	1
287.9	1
287.95	1
288	1
288.05	1
288.1	1
288.15	1
288.2	1
288.25	1
288.3	1
288.35	1
288.4	1
288.45	1
288.5	1
288.55	1
288.6	1
288.65	1
288.7	1
288.75	1
288.8	1
288.85	1
288.9	1
288.95	1
289	1
289.05	1
289.1	1
289.15	1
289.2	1
289.25	1
289.3	1
289.35	1
289.4	1
289.45	1
289.5	1
289.55	1
289.6	1
289.65	1
289.7	1
289.75	1
289.8	1
289.85	1
289.9	1
289.95	1
290	1
290.05	1
290.1	1
290.15	1
290.2	1
290.25	1
290.3	1
290.35	1
290.4	1
290.45	1
290.5	1
290.55	1
290.6	1
290.65	1
290.7	1
290.75	1
290.8	1
290.85	1
290.9	1
290.95	1
291	1
291.05	1
291.1	1
291.15	1
291.2	1
291.25	1
291.3	1
291.35	1
291.4	1
291.45	1
291.5	1
291.55	1
291.6	1
291.65	1
291.7	1
291.75	1
291.8	1
291.85	1
291.9	1
291.95	1
292	1
292.05	1
292.1	1
292.15	1
292.2	1
292.25	1
292.3	1
292.35	1
292.4	1
292.45	1
292.5	1
292.55	1
292.6	1
292.65	1
292.7	1
292.75	1
292.8	1
292.85	1
292.9	1
292.95	1
293	1
293.05	1
293.1	1
293.15	1
293.2	1
293.25	1
293.3	1
293.35	1
293.4	1
293.45	1
293.5	1
293.55	1
293.6	1
293.65	1
293.7	1
293.75	1
293.8	1
293.85	1
293.9	1
293.95	1
294	1
294.05	1
294.1	1
294.15	1
294.2	1
294.25	1
294.3	1
294.35	1
294.4	1
294.45	1
294.5	1
294.55	1
294.6	1
294.65	1
294.7	1
294.75	1
294.8	1
294.85	1
294.9	1
294.95	1
295	1
295.05	1
295.1	1
295.15	1
295.2	1
295.25	1
295.3	1
295.35	1
295.4	1
295.45	1
295.5	1
295.55	1
295.6	1
295.65	1
295.7	1
295.75	1
295.8	1
295.85	1
295.9	1
295.95	1
296	1
296.05	1
296.1	1
296.15	1
296.2	1
296.25	1
296.3	1
296.35	1
296.4	1
296.45	1
296.5	1
296.55	1
296.6	1
296.65	1
296.7	1
296.75	1
296.8	1
296.85	1
296.9	1
296.95	1
297	1
297.05	1
297.1	1
297.15	1
297.2	1
297.25	1
297.3	1
297.35	1
297.4	1
297.45	1
297.5	1
297.55	1
297.6	1
297.65	1
297.7	1
297.75	1
297.8	1
297.85	1
297.9	1
297.95	1
298	1
298.05	0.9892362
298.1	0.9785883
298.15	0.9680549
298.2	0.957635
298.25	0.9473272
298.3	0.9371303
298.35	0.9270433
298.4	0.9170647
298.45	0.9071936
298.5	0.8974288
298.55	0.887769
298.6	0.8782133
298.65	0.8687604
298.7	0.8594092
298.75	0.8501587
298.8	0.8410078
298.85	0.8319553
298.9	0.8230003
298.95	0.8141417
299	0.8053784
299.05	0.7967095
299.1	0.7881339
299.15	0.7796506
299.2	0.7712586
299.25	0.7629569
299.3	0.7547446
299.35	0.7466207
299.4	0.7385842
299.45	0.7306342
299.5	0.7227698
299.55	0.7149901
299.6	0.707294
299.65	0.6996809
299.7	0.6921496
299.75	0.6846995
299.8	0.6773295
299.85	0.6700389
299.9	0.6628267
299.95	0.6556922
300	0.6486344
300.05	0.6416527
300.1	0.634746
300.15	0.6279138
300.2	0.621155
300.25	0.614469
300.3	0.607855
300.35	0.6013122
300.4	0.5948398
300.45	0.588437
300.5	0.5821032
300.55	0.5758376
300.6	0.5696394
300.65	0.5635079
300.7	0.5574424
300.75	0.5514422
300.8	0.5455066
300.85	0.5396349
300.9	0.5338263
300.95	0.5280803
301	0.5223962
301.05	0.5167732
301.1	0.5112108
301.15	0.5057082
301.2	0.5002649
301.25	0.4948801
301.3	0.4895533
301.35	0.4842839
301.4	0.4790711
301.45	0.4739145
301.5	0.4688134
301.55	0.4637672
301.6	0.4587753
301.65	0.4538371
301.7	0.4489521
301.75	0.4441197
301.8	0.4393392
301.85	0.4346103
301.9	0.4299322
301.95	0.4253045
302	0.4207266
302.05	0.416198
302.1	0.4117181
302.15	0.4072865
302.2	0.4029025
302.25	0.3985658
302.3	0.3942757
302.35	0.3900318
302.4	0.3858336
302.45	0.3816805
302.5	0.3775722
302.55	0.3735081
302.6	0.3694877
302.65	0.3655106
302.7	0.3615763
302.75	0.3576844
302.8	0.3538344
302.85	0.3500258
302.9	0.3462581
302.95	0.3425311
303	0.3388442
303.05	0.3351969
303.1	0.3315889
303.15	0.3280198
303.2	0.324489
303.25	0.3209963
303.3	0.3175411
303.35	0.3141232
303.4	0.310742
303.45	0.3073973
303.5	0.3040885
303.55	0.3008154
303.6	0.2975774
303.65	0.2943744
303.7	0.2912058
303.75	0.2880713
303.8	0.2849706
303.85	0.2819032
303.9	0.2788688
303.95	0.2758672
304	0.2728978
304.05	0.2699604
304.1	0.2670546
304.15	0.26418
304.2	0.2613365
304.25	0.2585235
304.3	0.2557408
304.35	0.252988
304.4	0.2502649
304.45	0.2475711
304.5	0.2449063
304.55	0.2422702
304.6	0.2396625
304.65	0.2370828
304.7	0.2345309
304.75	0.2320064
304.8	0.2295091
304.85	0.2270388
304.9	0.224595
304.95	0.2221775
305	0.219786
305.05	0.2174203
305.1	0.21508
305.15	0.2127649
305.2	0.2104747
305.25	0.2082092
305.3	0.2059681
305.35	0.2037511
305.4	0.201558
305.45	0.1993885
305.5	0.1972423
305.55	0.1951192
305.6	0.193019
305.65	0.1909414
305.7	0.1888861
305.75	0.186853
305.8	0.1848417
305.85	0.1828521
305.9	0.1808839
305.95	0.1789369
306	0.1770109
306.05	0.1751056
306.1	0.1732208
306.15	0.1713563
306.2	0.1695118
306.25	0.1676872
306.3	0.1658823
306.35	0.1640968
306.4	0.1623305
306.45	0.1605832
306.5	0.1588547
306.55	0.1571448
306.6	0.1554533
306.65	0.1537801
306.7	0.1521248
306.75	0.1504874
306.8	0.1488675
306.85	0.1472652
306.9	0.14568
306.95	0.144112
307	0.1425608
307.05	0.1410263
307.1	0.1395083
307.15	0.1380066
307.2	0.1365212
307.25	0.1350517
307.3	0.133598
307.35	0.13216
307.4	0.1307374
307.45	0.1293302
307.5	0.1279381
307.55	0.126561
307.6	0.1251988
307.65	0.1238511
307.7	0.122518
307.75	0.1211993
307.8	0.1198947
307.85	0.1186042
307.9	0.1173275
307.95	0.1160647
308	0.1148154
308.05	0.1135795
308.1	0.112357
308.15	0.1111476
308.2	0.1099512
308.25	0.1087677
308.3	0.107597
308.35	0.1064388
308.4	0.1052931
308.45	0.1041598
308.5	0.1030386
308.55	0.1019295
308.6	0.1008324
308.65	0.099747
308.7	0.0986734
308.75	0.0976113
308.8	0.0965606
308.85	0.0955213
308.9	0.0944931
308.95	0.093476
309	0.0924698
309.05	0.0914745
309.1	0.0904899
309.15	0.0895159
309.2	0.0885523
309.25	0.0875992
309.3	0.0866563
309.35	0.0857235
309.4	0.0848008
309.45	0.083888
309.5	0.0829851
309.55	0.0820918
309.6	0.0812082
309.65	0.0803341
309.7	0.0794694
309.75	0.078614
309.8	0.0777678
309.85	0.0769308
309.9	0.0761027
309.95	0.0752835
310	0.0744732
310.05	0.0736716
310.1	0.0728786
310.15	0.0720941
310.2	0.0713181
310.25	0.0705505
310.3	0.0697911
310.35	0.0690399
310.4	0.0682967
310.45	0.0675616
310.5	0.0668344
310.55	0.066115
310.6	0.0654034
310.65	0.0646994
310.7	0.064003
310.75	0.063314
310.8	0.0626325
310.85	0.0619584
310.9	0.0612915
310.95	0.0606317
311	0.0599791
311.05	0.0593335
311.1	0.0586949
311.15	0.0580631
311.2	0.0574381
311.25	0.0568198
311.3	0.0562082
311.35	0.0556032
311.4	0.0550047
311.45	0.0544127
311.5	0.053827
311.55	0.0532476
311.6	0.0526744
311.65	0.0521075
311.7	0.0515466
311.75	0.0509918
311.8	0.0504429
311.85	0.0498999
311.9	0.0493628
311.95	0.0488315
312	0.0483059
312.05	0.0477859
312.1	0.0472716
312.15	0.0467627
312.2	0.0462594
312.25	0.0457615
312.3	0.0452689
312.35	0.0447816
312.4	0.0442996
312.45	0.0438228
312.5	0.0433511
312.55	0.0428845
312.6	0.0424229
312.65	0.0419662
312.7	0.0415145
312.75	0.0410677
312.8	0.0406256
312.85	0.0401883
312.9	0.0397558
312.95	0.0393278
313	0.0389045
313.05	0.0384858
313.1	0.0380715
313.15	0.0376617
313.2	0.0372563
313.25	0.0368553
313.3	0.0364586
313.35	0.0360662
313.4	0.035678
313.45	0.0352939
313.5	0.034914
313.55	0.0345382
313.6	0.0341665
313.65	0.0337987
313.7	0.0334349
313.75	0.033075
313.8	0.032719
313.85	0.0323668
313.9	0.0320184
313.95	0.0316738
314	0.0313329
314.05	0.0309956
314.1	0.030662
314.15	0.0303319
314.2	0.0300054
314.25	0.0296825
314.3	0.029363
314.35	0.0290469
314.4	0.0287343
314.45	0.028425
314.5	0.028119
314.55	0.0278163
314.6	0.0275169
314.65	0.0272207
314.7	0.0269277
314.75	0.0266379
314.8	0.0263512
314.85	0.0260675
314.9	0.025787
314.95	0.0255094
315	0.0252348
315.05	0.0249632
315.1	0.0246945
315.15	0.0244287
315.2	0.0241657
315.25	0.0239056
315.3	0.0236483
315.35	0.0233938
315.4	0.023142
315.45	0.0228929
315.5	0.0226464
315.55	0.0224027
315.6	0.0221615
315.65	0.021923
315.7	0.021687
315.75	0.0214536
315.8	0.0212227
315.85	0.0209942
315.9	0.0207683
315.95	0.0205447
316	0.0203236
316.05	0.0201048
316.1	0.0198884
316.15	0.0196743
316.2	0.0194626
316.25	0.0192531
316.3	0.0190458
316.35	0.0188408
316.4	0.018638
316.45	0.0184374
316.5	0.018239
316.55	0.0180426
316.6	0.0178484
316.65	0.0176563
316.7	0.0174663
316.75	0.0172783
316.8	0.0170923
316.85	0.0169083
316.9	0.0167263
316.95	0.0165463
317	0.0163682
317.05	0.016192
317.1	0.0160177
317.15	0.0158453
317.2	0.0156747
317.25	0.015506
317.3	0.0153391
317.35	0.015174
317.4	0.0150107
317.45	0.0148491
317.5	0.0146893
317.55	0.0145312
317.6	0.0143747
317.65	0.01422
317.7	0.014067
317.75	0.0139155
317.8	0.0137658
317.85	0.0136176
317.9	0.013471
317.95	0.013326
318	0.0131826
318.05	0.0130407
318.1	0.0129003
318.15	0.0127614
318.2	0.0126241
318.25	0.0124882
318.3	0.0123538
318.35	0.0122208
318.4	0.0120893
318.45	0.0119591
318.5	0.0118304
318.55	0.0117031
318.6	0.0115771
318.65	0.0114525
318.7	0.0113292
318.75	0.0112073
318.8	0.0110866
318.85	0.0109673
318.9	0.0108493
318.95	0.0107325
319	0.010617
319.05	0.0105027
319.1	0.0103896
319.15	0.0102778
319.2	0.0101672
319.25	0.0100577
319.3	0.0099495
319.35	0.0098424
319.4	0.0097364
319.45	0.0096316
319.5	0.009528
319.55	0.0094254
319.6	0.009324
319.65	0.0092236
319.7	0.0091243
319.75	0.0090261
319.8	0.0089289
319.85	0.0088328
319.9	0.0087378
319.95	0.0086437
320	0.0085507
320.05	0.0084586
320.1	0.0083676
320.15	0.0082775
320.2	0.0081884
320.25	0.0081003
320.3	0.0080131
320.35	0.0079268
320.4	0.0078415
320.45	0.0077571
320.5	0.0076736
320.55	0.007591
320.6	0.0075093
320.65	0.0074285
320.7	0.0073485
320.75	0.0072694
320.8	0.0071912
320.85	0.0071138
320.9	0.0070372
320.95	0.0069615
321	0.0068865
321.05	0.0068124
321.1	0.0067391
321.15	0.0066665
321.2	0.0065948
321.25	0.0065238
321.3	0.0064536
321.35	0.0063841
321.4	0.0063154
321.45	0.0062474
321.5	0.0061802
321.55	0.0061136
321.6	0.0060478
321.65	0.0059827
321.7	0.0059183
321.75	0.0058546
321.8	0.0057916
321.85	0.0057293
321.9	0.0056676
321.95	0.0056066
322	0.0055463
322.05	0.0054866
322.1	0.0054275
322.15	0.0053691
322.2	0.0053113
322.25	0.0052541
322.3	0.0051976
322.35	0.0051416
322.4	0.0050863
322.45	0.0050315
322.5	0.0049774
322.55	0.0049238
322.6	0.0048708
322.65	0.0048184
322.7	0.0047665
322.75	0.0047152
322.8	0.0046644
322.85	0.0046142
322.9	0.0045646
322.95	0.0045154
323	0.0044668
323.05	0.0044188
323.1	0.0043712
323.15	0.0043241
323.2	0.0042776
323.25	0.0042316
323.3	0.004186
323.35	0.004141
323.4	0.0040964
323.45	0.0040523
323.5	0.0040087
323.55	0.0039655
323.6	0.0039228
323.65	0.0038806
323.7	0.0038388
323.75	0.0037975
323.8	0.0037566
323.85	0.0037162
323.9	0.0036762
323.95	0.0036366
324	0.0035975
324.05	0.0035588
324.1	0.0035205
324.15	0.0034826
324.2	0.0034451
324.25	0.003408
324.3	0.0033713
324.35	0.003335
324.4	0.0032991
324.45	0.0032636
324.5	0.0032285
324.55	0.0031937
324.6	0.0031594
324.65	0.0031254
324.7	0.0030917
324.75	0.0030584
324.8	0.0030255
324.85	0.002993
324.9	0.0029607
324.95	0.0029289
325	0.0028973
325.05	0.0028662
325.1	0.0028353
325.15	0.0028048
325.2	0.0027746
325.25	0.0027447
325.3	0.0027152
325.35	0.002686
325.4	0.0026571
325.45	0.0026285
325.5	0.0026002
325.55	0.0025722
325.6	0.0025445
325.65	0.0025171
325.7	0.00249
325.75	0.0024632
325.8	0.0024367
325.85	0.0024105
325.9	0.0023845
325.95	0.0023588
326	0.0023335
326.05	0.0023083
326.1	0.0022835
326.15	0.0022589
326.2	0.0022346
326.25	0.0022105
326.3	0.0021868
326.35	0.0021632
326.4	0.0021399
326.45	0.0021169
326.5	0.0020941
326.55	0.0020716
326.6	0.0020493
326.65	0.0020272
326.7	0.0020054
326.75	0.0019838
326.8	0.0019625
326.85	0.0019413
326.9	0.0019204
326.95	0.0018998
327	0.0018793
327.05	0.0018591
327.1	0.0018391
327.15	0.0018193
327.2	0.0017997
327.25	0.0017803
327.3	0.0017612
327.35	0.0017422
327.4	0.0017235
327.45	0.0017049
327.5	0.0016866
327.55	0.0016684
327.6	0.0016504
327.65	0.0016327
327.7	0.0016151
327.75	0.0015977
327.8	0.0015805
327.85	0.0015635
327.9	0.0015467
327.95	0.00153
328	0.0015136
328.05	0.0014597
328.1	0.0014571
328.15	0.0014546
328.2	0.0014521
328.25	0.0014496
328.3	0.0014471
328.35	0.0014446
328.4	0.0014421
328.45	0.0014396
328.5	0.0014371
328.55	0.0014347
328.6	0.0014322
328.65	0.0014297
328.7	0.0014272
328.75	0.0014248
328.8	0.0014223
328.85	0.0014199
328.9	0.0014174
328.95	0.001415
329	0.0014125
329.05	0.0014101
329.1	0.0014077
329.15	0.0014052
329.2	0.0014028
329.25	0.0014004
329.3	0.001398
329.35	0.0013956
329.4	0.0013932
329.45	0.0013908
329.5	0.0013884
329.55	0.001386
329.6	0.0013836
329.65	0.0013812
329.7	0.0013788
329.75	0.0013764
329.8	0.001374
329.85	0.0013717
329.9	0.0013693
329.95	0.0013669
330	0.0013646
330.05	0.0013622
330.1	0.0013599
330.15	0.0013575
330.2	0.0013552
330.25	0.0013529
330.3	0.0013505
330.35	0.0013482
330.4	0.0013459
330.45	0.0013435
330.5	0.0013412
330.55	0.0013389
330.6	0.0013366
330.65	0.0013343
330.7	0.001332
330.75	0.0013297
330.8	0.0013274
330.85	0.0013251
330.9	0.0013228
330.95	0.0013205
331	0.0013183
331.05	0.001316
331.1	0.0013137
331.15	0.0013114
331.2	0.0013092
331.25	0.0013069
331.3	0.0013047
331.35	0.0013024
331.4	0.0013002
331.45	0.0012979
331.5	0.0012957
331.55	0.0012935
331.6	0.0012912
331.65	0.001289
331.7	0.0012868
331.75	0.0012845
331.8	0.0012823
331.85	0.0012801
331.9	0.0012779
331.95	0.0012757
332	0.0012735
332.05	0.0012713
332.1	0.0012691
332.15	0.0012669
332.2	0.0012647
332.25	0.0012626
332.3	0.0012604
332.35	0.0012582
332.4	0.001256
332.45	0.0012539
332.5	0.0012517
332.55	0.0012495
332.6	0.0012474
332.65	0.0012452
332.7	0.0012431
332.75	0.0012409
332.8	0.0012388
332.85	0.0012367
332.9	0.0012345
332.95	0.0012324
333	0.0012303
333.05	0.0012281
333.1	0.001226
333.15	0.0012239
333.2	0.0012218
333.25	0.0012197
333.3	0.0012176
333.35	0.0012155
333.4	0.0012134
333.45	0.0012113
333.5	0.0012092
333.55	0.0012071
333.6	0.001205
333.65	0.001203
333.7	0.0012009
333.75	0.0011988
333.8	0.0011967
333.85	0.0011947
333.9	0.0011926
333.95	0.0011906
334	0.0011885
334.05	0.0011865
334.1	0.0011844
334.15	0.0011824
334.2	0.0011803
334.25	0.0011783
334.3	0.0011763
334.35	0.0011742
334.4	0.0011722
334.45	0.0011702
334.5	0.0011682
334.55	0.0011661
334.6	0.0011641
334.65	0.0011621
334.7	0.0011601
334.75	0.0011581
334.8	0.0011561
334.85	0.0011541
334.9	0.0011521
334.95	0.0011501
335	0.0011482
335.05	0.0011462
335.1	0.0011442
335.15	0.0011422
335.2	0.0011402
335.25	0.0011383
335.3	0.0011363
335.35	0.0011344
335.4	0.0011324
335.45	0.0011304
335.5	0.0011285
335.55	0.0011265
335.6	0.0011246
335.65	0.0011227
335.7	0.0011207
335.75	0.0011188
335.8	0.0011169
335.85	0.0011149
335.9	0.001113
335.95	0.0011111
336	0.0011092
336.05	0.0011073
336.1	0.0011054
336.15	0.0011034
336.2	0.0011015
336.25	0.0010996
336.3	0.0010977
336.35	0.0010958
336.4	0.001094
336.45	0.0010921
336.5	0.0010902
336.55	0.0010883
336.6	0.0010864
336.65	0.0010846
336.7	0.0010827
336.75	0.0010808
336.8	0.0010789
336.85	0.0010771
336.9	0.0010752
336.95	0.0010734
337	0.0010715
337.05	0.0010697
337.1	0.0010678
337.15	0.001066
337.2	0.0010641
337.25	0.0010623
337.3	0.0010605
337.35	0.0010586
337.4	0.0010568
337.45	0.001055
337.5	0.0010532
337.55	0.0010514
337.6	0.0010495
337.65	0.0010477
337.7	0.0010459
337.75	0.0010441
337.8	0.0010423
337.85	0.0010405
337.9	0.0010387
337.95	0.0010369
338	0.0010351
338.05	0.0010334
338.1	0.0010316
338.15	0.0010298
338.2	0.001028
338.25	0.0010262
338.3	0.0010245
338.35	0.0010227
338.4	0.0010209
338.45	0.0010192
338.5	0.0010174
338.55	0.0010157
338.6	0.0010139
338.65	0.0010122
338.7	0.0010104
338.75	0.0010087
338.8	0.0010069
338.85	0.0010052
338.9	0.0010035
338.95	0.0010017
339	0.001
339.05	0.0009983
339.1	0.0009966
339.15	0.0009948
339.2	0.0009931
339.25	0.0009914
339.3	0.0009897
339.35	0.000988
339.4	0.0009863
339.45	0.0009846
339.5	0.0009829
339.55	0.0009812
339.6	0.0009795
339.65	0.0009778
339.7	0.0009761
339.75	0.0009744
339.8	0.0009727
339.85	0.0009711
339.9	0.0009694
339.95	0.0009677
340	0.0009661
340.05	0.0009644
340.1	0.0009627
340.15	0.0009611
340.2	0.0009594
340.25	0.0009577
340.3	0.0009561
340.35	0.0009544
340.4	0.0009528
340.45	0.0009512
340.5	0.0009495
340.55	0.0009479
340.6	0.0009462
340.65	0.0009446
340.7	0.000943
340.75	0.0009413
340.8	0.0009397
340.85	0.0009381
340.9	0.0009365
340.95	0.0009349
341	0.0009333
341.05	0.0009316
341.1	0.00093
341.15	0.0009284
341.2	0.0009268
341.25	0.0009252
341.3	0.0009236
341.35	0.000922
341.4	0.0009204
341.45	0.0009189
341.5	0.0009173
341.55	0.0009157
341.6	0.0009141
341.65	0.0009125
341.7	0.000911
341.75	0.0009094
341.8	0.0009078
341.85	0.0009063
341.9	0.0009047
341.95	0.0009031
342	0.0009016
342.05	0.0009
342.1	0.0008985
342.15	0.0008969
342.2	0.0008954
342.25	0.0008938
342.3	0.0008923
342.35	0.0008907
342.4	0.0008892
342.45	0.0008877
342.5	0.0008861
342.55	0.0008846
342.6	0.0008831
342.65	0.0008816
342.7	0.00088
342.75	0.0008785
342.8	0.000877
342.85	0.0008755
342.9	0.000874
342.95	0.0008725
343	0.000871
343.05	0.0008695
343.1	0.000868
343.15	0.0008665
343.2	0.000865
343.25	0.0008635
343.3	0.000862
343.35	0.0008605
343.4	0.000859
343.45	0.0008575
343.5	0.0008561
343.55	0.0008546
343.6	0.0008531
343.65	0.0008516
343.7	0.0008502
343.75	0.0008487
343.8	0.0008472
343.85	0.0008458
343.9	0.0008443
343.95	0.0008428
344	0.0008414
344.05	0.0008399
344.1	0.0008385
344.15	0.000837
344.2	0.0008356
344.25	0.0008342
344.3	0.0008327
344.35	0.0008313
344.4	0.0008299
344.45	0.0008284
344.5	0.000827
344.55	0.0008256
344.6	0.0008241
344.65	0.0008227
344.7	0.0008213
344.75	0.0008199
344.8	0.0008185
344.85	0.0008171
344.9	0.0008156
344.95	0.0008142
345	0.0008128
345.05	0.0008114
345.1	0.00081
345.15	0.0008086
345.2	0.0008072
345.25	0.0008058
345.3	0.0008045
345.35	0.0008031
345.4	0.0008017
345.45	0.0008003
345.5	0.0007989
345.55	0.0007975
345.6	0.0007962
345.65	0.0007948
345.7	0.0007934
345.75	0.000792
345.8	0.0007907
345.85	0.0007893
345.9	0.000788
345.95	0.0007866
346	0.0007852
346.05	0.0007839
346.1	0.0007825
346.15	0.0007812
346.2	0.0007798
346.25	0.0007785
346.3	0.0007771
346.35	0.0007758
346.4	0.0007745
346.45	0.0007731
346.5	0.0007718
346.55	0.0007705
346.6	0.0007691
346.65	0.0007678
346.7	0.0007665
346.75	0.0007652
346.8	0.0007638
346.85	0.0007625
346.9	0.0007612
346.95	0.0007599
347	0.0007586
347.05	0.0007573
347.1	0.000756
347.15	0.0007547
347.2	0.0007534
347.25	0.0007521
347.3	0.0007508
347.35	0.0007495
347.4	0.0007482
347.45	0.0007469
347.5	0.0007456
347.55	0.0007443
347.6	0.000743
347.65	0.0007417
347.7	0.0007405
347.75	0.0007392
347.8	0.0007379
347.85	0.0007366
347.9	0.0007354
347.95	0.0007341
348	0.0007328
348.05	0.0007316
348.1	0.0007303
348.15	0.000729
348.2	0.0007278
348.25	0.0007265
348.3	0.0007253
348.35	0.000724
348.4	0.0007228
348.45	0.0007215
348.5	0.0007203
348.55	0.000719
348.6	0.0007178
348.65	0.0007166
348.7	0.0007153
348.75	0.0007141
348.8	0.0007129
348.85	0.0007116
348.9	0.0007104
348.95	0.0007092
349	0.0007079
349.05	0.0007067
349.1	0.0007055
349.15	0.0007043
349.2	0.0007031
349.25	0.0007019
349.3	0.0007006
349.35	0.0006994
349.4	0.0006982
349.45	0.000697
349.5	0.0006958
349.55	0.0006946
349.6	0.0006934
349.65	0.0006922
349.7	0.000691
349.75	0.0006898
349.8	0.0006887
349.85	0.0006875
349.9	0.0006863
349.95	0.0006851
350	0.0006839
350.05	0.0006827
350.1	0.0006816
350.15	0.0006804
350.2	0.0006792
350.25	0.000678
350.3	0.0006769
350.35	0.0006757
350.4	0.0006745
350.45	0.0006734
350.5	0.0006722
350.55	0.000671
350.6	0.0006699
350.65	0.0006687
350.7	0.0006676
350.75	0.0006664
350.8	0.0006653
350.85	0.0006641
350.9	0.000663
350.95	0.0006618
351	0.0006607
351.05	0.0006596
351.1	0.0006584
351.15	0.0006573
351.2	0.0006561
351.25	0.000655
351.3	0.0006539
351.35	0.0006528
351.4	0.0006516
351.45	0.0006505
351.5	0.0006494
351.55	0.0006483
351.6	0.0006471
351.65	0.000646
351.7	0.0006449
351.75	0.0006438
351.8	0.0006427
351.85	0.0006416
351.9	0.0006405
351.95	0.0006394
352	0.0006383
352.05	0.0006372
352.1	0.0006361
352.15	0.000635
352.2	0.0006339
352.25	0.0006328
352.3	0.0006317
352.35	0.0006306
352.4	0.0006295
352.45	0.0006284
352.5	0.0006273
352.55	0.0006263
352.6	0.0006252
352.65	0.0006241
352.7	0.000623
352.75	0.0006219
352.8	0.0006209
352.85	0.0006198
352.9	0.0006187
352.95	0.0006177
353	0.0006166
353.05	0.0006155
353.1	0.0006145
353.15	0.0006134
353.2	0.0006124
353.25	0.0006113
353.3	0.0006102
353.35	0.0006092
353.4	0.0006081
353.45	0.0006071
353.5	0.000606
353.55	0.000605
353.6	0.0006039
353.65	0.0006029
353.7	0.0006019
353.75	0.0006008
353.8	0.0005998
353.85	0.0005988
353.9	0.0005977
353.95	0.0005967
354	0.0005957
354.05	0.0005946
354.1	0.0005936
354.15	0.0005926
354.2	0.0005916
354.25	0.0005905
354.3	0.0005895
354.35	0.0005885
354.4	0.0005875
354.45	0.0005865
354.5	0.0005855
354.55	0.0005845
354.6	0.0005834
354.65	0.0005824
354.7	0.0005814
354.75	0.0005804
354.8	0.0005794
354.85	0.0005784
354.9	0.0005774
354.95	0.0005764
355	0.0005754
355.05	0.0005744
355.1	0.0005735
355.15	0.0005725
355.2	0.0005715
355.25	0.0005705
355.3	0.0005695
355.35	0.0005685
355.4	0.0005675
355.45	0.0005666
355.5	0.0005656
355.55	0.0005646
355.6	0.0005636
355.65	0.0005627
355.7	0.0005617
355.75	0.0005607
355.8	0.0005598
355.85	0.0005588
355.9	0.0005578
355.95	0.0005569
356	0.0005559
356.05	0.0005549
356.1	0.000554
356.15	0.000553
356.2	0.0005521
356.25	0.0005511
356.3	0.0005502
356.35	0.0005492
356.4	0.0005483
356.45	0.0005473
356.5	0.0005464
356.55	0.0005454
356.6	0.0005445
356.65	0.0005436
356.7	0.0005426
356.75	0.0005417
356.8	0.0005408
356.85	0.0005398
356.9	0.0005389
356.95	0.000538
357	0.000537
357.05	0.0005361
357.1	0.0005352
357.15	0.0005343
357.2	0.0005333
357.25	0.0005324
357.3	0.0005315
357.35	0.0005306
357.4	0.0005297
357.45	0.0005287
357.5	0.0005278
357.55	0.0005269
357.6	0.000526
357.65	0.0005251
357.7	0.0005242
357.75	0.0005233
357.8	0.0005224
357.85	0.0005215
357.9	0.0005206
357.95	0.0005197
358	0.0005188
358.05	0.0005179
358.1	0.000517
358.15	0.0005161
358.2	0.0005152
358.25	0.0005143
358.3	0.0005135
358.35	0.0005126
358.4	0.0005117
358.45	0.0005108
358.5	0.0005099
358.55	0.000509
358.6	0.0005082
358.65	0.0005073
358.7	0.0005064
358.75	0.0005055
358.8	0.0005047
358.85	0.0005038
358.9	0.0005029
358.95	0.0005021
359	0.0005012
359.05	0.0005003
359.1	0.0004995
359.15	0.0004986
359.2	0.0004977
359.25	0.0004969
359.3	0.000496
359.35	0.0004952
359.4	0.0004943
359.45	0.0004935
359.5	0.0004926
359.55	0.0004918
359.6	0.0004909
359.65	0.0004901
359.7	0.0004892
359.75	0.0004884
359.8	0.0004875
359.85	0.0004867
359.9	0.0004858
359.95	0.000485
360	0.0004842
360.05	0.0004833
360.1	0.0004825
360.15	0.0004817
360.2	0.0004808
360.25	0.00048
360.3	0.0004792
360.35	0.0004784
360.4	0.0004775
360.45	0.0004767
360.5	0.0004759
360.55	0.0004751
360.6	0.0004742
360.65	0.0004734
360.7	0.0004726
360.75	0.0004718
360.8	0.000471
360.85	0.0004702
360.9	0.0004694
360.95	0.0004685
361	0.0004677
361.05	0.0004669
361.1	0.0004661
361.15	0.0004653
361.2	0.0004645
361.25	0.0004637
361.3	0.0004629
361.35	0.0004621
361.4	0.0004613
361.45	0.0004605
361.5	0.0004597
361.55	0.0004589
361.6	0.0004581
361.65	0.0004574
361.7	0.0004566
361.75	0.0004558
361.8	0.000455
361.85	0.0004542
361.9	0.0004534
361.95	0.0004526
362	0.0004519
362.05	0.0004511
362.1	0.0004503
362.15	0.0004495
362.2	0.0004487
362.25	0.000448
362.3	0.0004472
362.35	0.0004464
362.4	0.0004457
362.45	0.0004449
362.5	0.0004441
362.55	0.0004434
362.6	0.0004426
362.65	0.0004418
362.7	0.0004411
362.75	0.0004403
362.8	0.0004395
362.85	0.0004388
362.9	0.000438
362.95	0.0004373
363	0.0004365
363.05	0.0004358
363.1	0.000435
363.15	0.0004343
363.2	0.0004335
363.25	0.0004328
363.3	0.000432
363.35	0.0004313
363.4	0.0004305
363.45	0.0004298
363.5	0.000429
363.55	0.0004283
363.6	0.0004276
363.65	0.0004268
363.7	0.0004261
363.75	0.0004254
363.8	0.0004246
363.85	0.0004239
363.9	0.0004232
363.95	0.0004224
364	0.0004217
364.05	0.000421
364.1	0.0004202
364.15	0.0004195
364.2	0.0004188
364.25	0.0004181
364.3	0.0004173
364.35	0.0004166
364.4	0.0004159
364.45	0.0004152
364.5	0.0004145
364.55	0.0004138
364.6	0.000413
364.65	0.0004123
364.7	0.0004116
364.75	0.0004109
364.8	0.0004102
364.85	0.0004095
364.9	0.0004088
364.95	0.0004081
365	0.0004074
365.05	0.0004067
365.1	0.000406
365.15	0.0004053
365.2	0.0004046
365.25	0.0004039
365.3	0.0004032
365.35	0.0004025
365.4	0.0004018
365.45	0.0004011
365.5	0.0004004
365.55	0.0003997
365.6	0.000399
365.65	0.0003983
365.7	0.0003976
365.75	0.000397
365.8	0.0003963
365.85	0.0003956
365.9	0.0003949
365.95	0.0003942
366	0.0003936
366.05	0.0003929
366.1	0.0003922
366.15	0.0003915
366.2	0.0003908
366.25	0.0003902
366.3	0.0003895
366.35	0.0003888
366.4	0.0003882
366.45	0.0003875
366.5	0.0003868
366.55	0.0003861
366.6	0.0003855
366.65	0.0003848
366.7	0.0003841
366.75	0.0003835
366.8	0.0003828
366.85	0.0003822
366.9	0.0003815
366.95	0.0003808
367	0.0003802
367.05	0.0003795
367.1	0.0003789
367.15	0.0003782
367.2	0.0003776
367.25	0.0003769
367.3	0.0003763
367.35	0.0003756
367.4	0.000375
367.45	0.0003743
367.5	0.0003737
367.55	0.000373
367.6	0.0003724
367.65	0.0003717
367.7	0.0003711
367.75	0.0003705
367.8	0.0003698
367.85	0.0003692
367.9	0.0003686
367.95	0.0003679
368	0.0003673
368.05	0.0003666
368.1	0.000366
368.15	0.0003654
368.2	0.0003648
368.25	0.0003641
368.3	0.0003635
368.35	0.0003629
368.4	0.0003622
368.45	0.0003616
368.5	0.000361
368.55	0.0003604
368.6	0.0003597
368.65	0.0003591
368.7	0.0003585
368.75	0.0003579
368.8	0.0003573
368.85	0.0003567
368.9	0.000356
368.95	0.0003554
369	0.0003548
369.05	0.0003542
369.1	0.0003536
369.15	0.000353
369.2	0.0003524
369.25	0.0003518
369.3	0.0003512
369.35	0.0003506
369.4	0.0003499
369.45	0.0003493
369.5	0.0003487
369.55	0.0003481
369.6	0.0003475
369.65	0.0003469
369.7	0.0003463
369.75	0.0003457
369.8	0.0003451
369.85	0.0003445
369.9	0.000344
369.95	0.0003434
370	0.0003428
370.05	0.0003422
370.1	0.0003416
370.15	0.000341
370.2	0.0003404
370.25	0.0003398
370.3	0.0003392
370.35	0.0003386
370.4	0.0003381
370.45	0.0003375
370.5	0.0003369
370.55	0.0003363
370.6	0.0003357
370.65	0.0003352
370.7	0.0003346
370.75	0.000334
370.8	0.0003334
370.85	0.0003329
370.9	0.0003323
370.95	0.0003317
371	0.0003311
371.05	0.0003306
371.1	0.00033
371.15	0.0003294
371.2	0.0003289
371.25	0.0003283
371.3	0.0003277
371.35	0.0003272
371.4	0.0003266
371.45	0.000326
371.5	0.0003255
371.55	0.0003249
371.6	0.0003243
371.65	0.0003238
371.7	0.0003232
371.75	0.0003227
371.8	0.0003221
371.85	0.0003216
371.9	0.000321
371.95	0.0003204
372	0.0003199
372.05	0.0003193
372.1	0.0003188
372.15	0.0003182
372.2	0.0003177
372.25	0.0003171
372.3	0.0003166
372.35	0.000316
372.4	0.0003155
372.45	0.000315
372.5	0.0003144
372.55	0.0003139
372.6	0.0003133
372.65	0.0003128
372.7	0.0003122
372.75	0.0003117
372.8	0.0003112
372.85	0.0003106
372.9	0.0003101
372.95	0.0003096
373	0.000309
373.05	0.0003085
373.1	0.000308
373.15	0.0003074
373.2	0.0003069
373.25	0.0003064
373.3	0.0003058
373.35	0.0003053
373.4	0.0003048
373.45	0.0003043
373.5	0.0003037
373.55	0.0003032
373.6	0.0003027
373.65	0.0003022
373.7	0.0003016
373.75	0.0003011
373.8	0.0003006
373.85	0.0003001
373.9	0.0002996
373.95	0.0002991
374	0.0002985
374.05	0.000298
374.1	0.0002975
374.15	0.000297
374.2	0.0002965
374.25	0.000296
374.3	0.0002955
374.35	0.000295
374.4	0.0002944
374.45	0.0002939
374.5	0.0002934
374.55	0.0002929
374.6	0.0002924
374.65	0.0002919
374.7	0.0002914
374.75	0.0002909
374.8	0.0002904
374.85	0.0002899
374.9	0.0002894
374.95	0.0002889
375	0.0002884
375.05	0.0002879
375.1	0.0002874
375.15	0.0002869
375.2	0.0002864
375.25	0.0002859
375.3	0.0002854
375.35	0.0002849
375.4	0.0002844
375.45	0.000284
375.5	0.0002835
375.55	0.000283
375.6	0.0002825
375.65	0.000282
375.7	0.0002815
375.75	0.000281
375.8	0.0002805
375.85	0.0002801
375.9	0.0002796
375.95	0.0002791
376	0.0002786
376.05	0.0002781
376.1	0.0002777
376.15	0.0002772
376.2	0.0002767
376.25	0.0002762
376.3	0.0002757
376.35	0.0002753
376.4	0.0002748
376.45	0.0002743
376.5	0.0002738
376.55	0.0002734
376.6	0.0002729
376.65	0.0002724
376.7	0.000272
376.75	0.0002715
376.8	0.000271
376.85	0.0002706
376.9	0.0002701
376.95	0.0002696
377	0.0002692
377.05	0.0002687
377.1	0.0002682
377.15	0.0002678
377.2	0.0002673
377.25	0.0002668
377.3	0.0002664
377.35	0.0002659
377.4	0.0002655
377.45	0.000265
377.5	0.0002645
377.55	0.0002641
377.6	0.0002636
377.65	0.0002632
377.7	0.0002627
377.75	0.0002623
377.8	0.0002618
377.85	0.0002614
377.9	0.0002609
377.95	0.0002605
378	0.00026
378.05	0.0002596
378.1	0.0002591
378.15	0.0002587
378.2	0.0002582
378.25	0.0002578
378.3	0.0002573
378.35	0.0002569
378.4	0.0002564
378.45	0.000256
378.5	0.0002556
378.55	0.0002551
378.6	0.0002547
378.65	0.0002542
378.7	0.0002538
378.75	0.0002534
378.8	0.0002529
378.85	0.0002525
378.9	0.0002521
378.95	0.0002516
379	0.0002512
379.05	0.0002508
379.1	0.0002503
379.15	0.0002499
379.2	0.0002495
379.25	0.000249
379.3	0.0002486
379.35	0.0002482
379.4	0.0002477
379.45	0.0002473
379.5	0.0002469
379.55	0.0002465
379.6	0.000246
379.65	0.0002456
379.7	0.0002452
379.75	0.0002448
379.8	0.0002443
379.85	0.0002439
379.9	0.0002435
379.95	0.0002431
380	0.0002427
380.05	0.0002422
380.1	0.0002418
380.15	0.0002414
380.2	0.000241
380.25	0.0002406
380.3	0.0002402
380.35	0.0002397
380.4	0.0002393
380.45	0.0002389
380.5	0.0002385
380.55	0.0002381
380.6	0.0002377
380.65	0.0002373
380.7	0.0002369
380.75	0.0002365
380.8	0.000236
380.85	0.0002356
380.9	0.0002352
380.95	0.0002348
381	0.0002344
381.05	0.000234
381.1	0.0002336
381.15	0.0002332
381.2	0.0002328
381.25	0.0002324
381.3	0.000232
381.35	0.0002316
381.4	0.0002312
381.45	0.0002308
381.5	0.0002304
381.55	0.00023
381.6	0.0002296
381.65	0.0002292
381.7	0.0002288
381.75	0.0002284
381.8	0.000228
381.85	0.0002276
381.9	0.0002272
381.95	0.0002269
382	0.0002265
382.05	0.0002261
382.1	0.0002257
382.15	0.0002253
382.2	0.0002249
382.25	0.0002245
382.3	0.0002241
382.35	0.0002237
382.4	0.0002234
382.45	0.000223
382.5	0.0002226
382.55	0.0002222
382.6	0.0002218
382.65	0.0002214
382.7	0.0002211
382.75	0.0002207
382.8	0.0002203
382.85	0.0002199
382.9	0.0002195
382.95	0.0002192
383	0.0002188
383.05	0.0002184
383.1	0.000218
383.15	0.0002176
383.2	0.0002173
383.25	0.0002169
383.3	0.0002165
383.35	0.0002161
383.4	0.0002158
383.45	0.0002154
383.5	0.000215
383.55	0.0002147
383.6	0.0002143
383.65	0.0002139
383.7	0.0002136
383.75	0.0002132
383.8	0.0002128
383.85	0.0002124
383.9	0.0002121
383.95	0.0002117
384	0.0002113
384.05	0.000211
384.1	0.0002106
384.15	0.0002103
384.2	0.0002099
384.25	0.0002095
384.3	0.0002092
384.35	0.0002088
384.4	0.0002084
384.45	0.0002081
384.5	0.0002077
384.55	0.0002074
384.6	0.000207
384.65	0.0002067
384.7	0.0002063
384.75	0.0002059
384.8	0.0002056
384.85	0.0002052
384.9	0.0002049
384.95	0.0002045
385	0.0002042
385.05	0.0002038
385.1	0.0002035
385.15	0.0002031
385.2	0.0002028
385.25	0.0002024
385.3	0.0002021
385.35	0.0002017
385.4	0.0002014
385.45	0.000201
385.5	0.0002007
385.55	0.0002003
385.6	0.0002
385.65	0.0001996
385.7	0.0001993
385.75	0.000199
385.8	0.0001986
385.85	0.0001983
385.9	0.0001979
385.95	0.0001976
386	0.0001972
386.05	0.0001969
386.1	0.0001966
386.15	0.0001962
386.2	0.0001959
386.25	0.0001955
386.3	0.0001952
386.35	0.0001949
386.4	0.0001945
386.45	0.0001942
386.5	0.0001939
386.55	0.0001935
386.6	0.0001932
386.65	0.0001929
386.7	0.0001925
386.75	0.0001922
386.8	0.0001919
386.85	0.0001915
386.9	0.0001912
386.95	0.0001909
387	0.0001905
387.05	0.0001902
387.1	0.0001899
387.15	0.0001896
387.2	0.0001892
387.25	0.0001889
387.3	0.0001886
387.35	0.0001883
387.4	0.0001879
387.45	0.0001876
387.5	0.0001873
387.55	0.000187
387.6	0.0001866
387.65	0.0001863
387.7	0.000186
387.75	0.0001857
387.8	0.0001854
387.85	0.000185
387.9	0.0001847
387.95	0.0001844
388	0.0001841
388.05	0.0001838
388.1	0.0001834
388.15	0.0001831
388.2	0.0001828
388.25	0.0001825
388.3	0.0001822
388.35	0.0001819
388.4	0.0001816
388.45	0.0001812
388.5	0.0001809
388.55	0.0001806
388.6	0.0001803
388.65	0.00018
388.7	0.0001797
388.75	0.0001794
388.8	0.0001791
388.85	0.0001788
388.9	0.0001784
388.95	0.0001781
389	0.0001778
389.05	0.0001775
389.1	0.0001772
389.15	0.0001769
389.2	0.0001766
389.25	0.0001763
389.3	0.000176
389.35	0.0001757
389.4	0.0001754
389.45	0.0001751
389.5	0.0001748
389.55	0.0001745
389.6	0.0001742
389.65	0.0001739
389.7	0.0001736
389.75	0.0001733
389.8	0.000173
389.85	0.0001727
389.9	0.0001724
389.95	0.0001721
390	0.0001718
390.05	0.0001715
390.1	0.0001712
390.15	0.0001709
390.2	0.0001706
390.25	0.0001703
390.3	0.00017
390.35	0.0001697
390.4	0.0001694
390.45	0.0001691
390.5	0.0001688
390.55	0.0001686
390.6	0.0001683
390.65	0.000168
390.7	0.0001677
390.75	0.0001674
390.8	0.0001671
390.85	0.0001668
390.9	0.0001665
390.95	0.0001662
391	0.000166
391.05	0.0001657
391.1	0.0001654
391.15	0.0001651
391.2	0.0001648
391.25	0.0001645
391.3	0.0001642
391.35	0.000164
391.4	0.0001637
391.45	0.0001634
391.5	0.0001631
391.55	0.0001628
391.6	0.0001626
391.65	0.0001623
391.7	0.000162
391.75	0.0001617
391.8	0.0001614
391.85	0.0001612
391.9	0.0001609
391.95	0.0001606
392	0.0001603
392.05	0.00016
392.1	0.0001598
392.15	0.0001595
392.2	0.0001592
392.25	0.0001589
392.3	0.0001587
392.35	0.0001584
392.4	0.0001581
392.45	0.0001579
392.5	0.0001576
392.55	0.0001573
392.6	0.000157
392.65	0.0001568
392.7	0.0001565
392.75	0.0001562
392.8	0.000156
392.85	0.0001557
392.9	0.0001554
392.95	0.0001551
393	0.0001549
393.05	0.0001546
393.1	0.0001543
393.15	0.0001541
393.2	0.0001538
393.25	0.0001536
393.3	0.0001533
393.35	0.000153
393.4	0.0001528
393.45	0.0001525
393.5	0.0001522
393.55	0.000152
393.6	0.0001517
393.65	0.0001514
393.7	0.0001512
393.75	0.0001509
393.8	0.0001507
393.85	0.0001504
393.9	0.0001501
393.95	0.0001499
394	0.0001496
394.05	0.0001494
394.1	0.0001491
394.15	0.0001489
394.2	0.0001486
394.25	0.0001483
394.3	0.0001481
394.35	0.0001478
394.4	0.0001476
394.45	0.0001473
394.5	0.0001471
394.55	0.0001468
394.6	0.0001466
394.65	0.0001463
394.7	0.000146
394.75	0.0001458
394.8	0.0001455
394.85	0.0001453
394.9	0.000145
394.95	0.0001448
395	0.0001445
395.05	0.0001443
395.1	0.000144
395.15	0.0001438
395.2	0.0001435
395.25	0.0001433
395.3	0.0001431
395.35	0.0001428
395.4	0.0001426
395.45	0.0001423
395.5	0.0001421
395.55	0.0001418
395.6	0.0001416
395.65	0.0001413
395.7	0.0001411
395.75	0.0001408
395.8	0.0001406
395.85	0.0001404
395.9	0.0001401
395.95	0.0001399
396	0.0001396
396.05	0.0001394
396.1	0.0001392
396.15	0.0001389
396.2	0.0001387
396.25	0.0001384
396.3	0.0001382
396.35	0.000138
396.4	0.0001377
396.45	0.0001375
396.5	0.0001372
396.55	0.000137
396.6	0.0001368
396.65	0.0001365
396.7	0.0001363
396.75	0.0001361
396.8	0.0001358
396.85	0.0001356
396.9	0.0001354
396.95	0.0001351
397	0.0001349
397.05	0.0001347
397.1	0.0001344
397.15	0.0001342
397.2	0.000134
397.25	0.0001337
397.3	0.0001335
397.35	0.0001333
397.4	0.000133
397.45	0.0001328
397.5	0.0001326
397.55	0.0001324
397.6	0.0001321
397.65	0.0001319
397.7	0.0001317
397.75	0.0001314
397.8	0.0001312
397.85	0.000131
397.9	0.0001308
397.95	0.0001305
398	0.0001303
398.05	0.0001301
398.1	0.0001299
398.15	0.0001296
398.2	0.0001294
398.25	0.0001292
398.3	0.000129
398.35	0.0001288
398.4	0.0001285
398.45	0.0001283
398.5	0.0001281
398.55	0.0001279
398.6	0.0001276
398.65	0.0001274
398.7	0.0001272
398.75	0.000127
398.8	0.0001268
398.85	0.0001265
398.9	0.0001263
398.95	0.0001261
399	0.0001259
399.05	0.0001257
399.1	0.0001255
399.15	0.0001252
399.2	0.000125
399.25	0.0001248
399.3	0.0001246
399.35	0.0001244
399.4	0.0001242
399.45	0.000124
399.5	0.0001237
399.55	0.0001235
399.6	0.0001233
399.65	0.0001231
399.7	0.0001229
399.75	0.0001227
399.8	0.0001225
399.85	0.0001223
399.9	0.000122
399.95	0.0001218
400	0.0001216
400.01	1e-50